2018/05/01	14:52
Amplitude: 0.10 V
Freq  (Hz) 	 Gain (dB)  	 Phase (deg)
100.024             -5.592             -4.447
125.915             -5.592             -5.603
158.511             -5.588             -7.063
199.489             -5.585             -8.881
251.271             -5.580            -11.194
316.277             -5.573            -14.085
398.047             -5.554            -17.796
501.238             -5.531            -22.631
630.878             -5.492            -28.637
794.418             -5.450            -36.620
1000.054             -5.409            -47.173
1258.962             -5.445            -61.493
1584.925             -5.754            -81.059
1995.265             -6.839            -106.886
2511.963             -9.359            -136.250
3162.213            -13.370            -163.560
3981.031            -18.285            174.506
5011.819            -23.614            157.259
6309.524            -29.143            143.616
7943.250            -34.784            132.469
9999.983            -40.444            122.923
12589.246            -46.115            115.197
15848.875            -51.684            107.530
19952.655            -57.053            100.204
25118.887            -61.938             90.452
31622.685            -66.094             78.980
39810.687            -69.194             67.659
50118.752            -70.880             54.723
63095.801            -71.910             49.575
79432.875            -72.295             48.544
100000.016            -70.274             12.434
