2018/05/01	15:15
Amplitude: 0.01 V
Freq  (Hz) 	 Gain (dB)  	 Phase (deg)
100.024             -9.519             -5.645
108.033             -9.521             -6.211
116.602             -9.534             -6.055
125.915             -9.567             -6.560
135.973             -9.555             -7.477
146.776             -9.534             -8.082
158.511             -9.536             -9.255
171.177             -9.554             -9.260
184.774             -9.534            -10.477
199.489             -9.547            -11.285
215.508             -9.552            -11.518
232.644             -9.525            -13.364
251.271             -9.511            -13.919
271.201             -9.508            -15.339
292.808             -9.504            -16.413
316.277             -9.534            -17.993
341.423             -9.493            -18.703
368.617             -9.492            -20.541
398.047             -9.487            -22.486
429.899             -9.477            -24.937
464.171             -9.444            -26.184
501.238             -9.424            -28.455
541.098             -9.434            -30.755
584.312             -9.459            -33.116
630.878             -9.393            -36.400
681.356             -9.364            -39.593
735.559             -9.356            -43.370
794.418             -9.342            -46.717
857.748             -9.299            -50.608
926.107             -9.308            -55.452
1000.054             -9.270            -60.658
1079.775             -9.235            -66.139
1165.830             -9.281            -73.045
1258.962             -9.351            -80.399
1359.358             -9.520            -88.033
1467.764             -9.746            -96.977
1584.925            -10.079            -106.620
1711.398            -10.625            -117.178
1847.930            -11.397            -128.483
1995.265            -12.418            -140.020
2154.522            -13.646            -151.300
2326.258            -15.089            -161.578
2511.963            -16.671            -171.097
2712.198            -18.379            180.252
2928.637            -20.164            172.310
3162.213            -21.989            165.635
3414.601            -23.834            159.453
3686.920            -25.688            153.255
3981.031            -27.567            147.594
4298.612            -29.447            142.802
4641.525            -31.301            138.526
